# Step     T (K)     E_KS (eV)    E_tot (eV)   Vol (A^3)    P (kBar)
     1  13797.49    -900.62774    -895.27756    1000.000       5.706
     2  13763.11    -900.60957    -895.27272    1000.000       6.376
     3  13675.08    -900.57250    -895.26978    1000.000       6.861
     4  13493.46    -900.50797    -895.27568    1000.000       7.193
     5  13052.59    -900.35724    -895.29590    1000.000       7.906
     6  12194.07    -900.05026    -895.32182    1000.000       8.828
     7  10748.02    -899.50279    -895.33508    1000.000      10.394
     8   8549.68    -898.64737    -895.33210    1000.000      12.469
     9   5951.71    -897.60301    -895.29515    1000.000      14.297
    10   4182.62    -896.89039    -895.26852    1000.000      14.364
    11   4151.23    -896.91358    -895.30388    1000.000      12.049
    12   5150.70    -897.35058    -895.35332    1000.000       8.718
    13   6083.83    -897.73771    -895.37862    1000.000       5.726
    14   6602.84    -897.94430    -895.38395    1000.000       3.392
    15   6783.81    -898.01086    -895.38034    1000.000       1.401
    16   6752.63    -897.99582    -895.37739    1000.000      -0.305
    17   6596.81    -897.93396    -895.37595    1000.000      -1.788
    18   6377.44    -897.84851    -895.37557    1000.000      -2.841
    19   6143.30    -897.75800    -895.37584    1000.000      -3.716
    20   5945.17    -897.68059    -895.37526    1000.000      -4.304
    21   5832.09    -897.63533    -895.37385    1000.000      -4.576
    22   5862.36    -897.64423    -895.37101    1000.000      -4.495
    23   6099.02    -897.73412    -895.36914    1000.000      -3.963
    24   6505.38    -897.90270    -895.38015    1000.000      -2.846
    25   6675.18    -897.99757    -895.40916    1000.000      -0.773
    26   5830.72    -897.67647    -895.41552    1000.000       2.322
    27   4223.06    -896.98379    -895.34624    1000.000       4.951
    28   3655.67    -896.76764    -895.35010    1000.000       4.692
    29   4512.62    -897.11318    -895.36334    1000.000       3.015
    30   6186.32    -897.75944    -895.36060    1000.000       1.644
    31   8514.17    -898.67122    -895.36972    1000.000       0.442
    32  11230.68    -899.73879    -895.38392    1000.000      -0.812
    33  13970.94    -900.80884    -895.39139    1000.000      -1.816
    34  16484.51    -901.80835    -895.41624    1000.000      -1.715
    35  17048.25    -902.25001    -895.63930    1000.000       1.510
    36   8668.52    -898.91649    -895.55514    1000.000      12.433
    37   8772.08    -899.48122    -896.07971    1000.000       6.079
    38  13099.88    -900.97038    -895.89071    1000.000      -2.992
    39  10619.35    -899.83541    -895.71760    1000.000      -3.679
    40   7693.16    -898.67693    -895.69379    1000.000      -5.005
    41   5748.75    -897.92462    -895.69546    1000.000      -5.903
    42   4791.81    -897.55789    -895.69980    1000.000      -6.172
    43   4612.33    -897.49807    -895.70957    1000.000      -5.731
    44   4757.82    -897.57789    -895.73298    1000.000      -4.367
    45   4680.94    -897.52471    -895.70961    1000.000      -1.835
    46   5557.57    -897.80412    -895.64909    1000.000      -0.779
    47   8146.54    -898.92223    -895.76329    1000.000      -3.051
    48  10168.28    -899.69193    -895.74902    1000.000      -4.708
    49  11379.02    -900.12563    -895.71325    1000.000      -5.211
    50  12838.72    -900.69340    -895.71499    1000.000      -4.713
    51  14048.63    -901.29842    -895.85085    1000.000      -1.900
    52   9363.99    -899.78753    -896.15650    1000.000       6.918
    53   6355.97    -897.50117    -895.03655    1000.000      11.379
    54  14796.08    -901.03327    -895.29587    1000.000      -1.638
    55  13809.67    -900.36990    -895.01499    1000.000      -0.518
    56  11599.11    -899.48831    -894.99058    1000.000      -0.010
    57   9939.25    -898.88404    -895.02995    1000.000       1.620
    58   7666.88    -898.04914    -895.07619    1000.000       5.265
    59   3990.72    -896.55458    -895.00712    1000.000       9.850
    60   1524.24    -895.48473    -894.89369    1000.000      11.449
    61   3027.00    -896.16431    -894.99054    1000.000       8.007
    62   5684.88    -897.26897    -895.06457    1000.000       3.496
    63   6448.18    -897.52601    -895.02563    1000.000       0.515
    64   5827.46    -897.25042    -894.99073    1000.000      -1.583
    65   5118.73    -896.96963    -894.98476    1000.000      -3.286
    66   4956.48    -896.91148    -894.98954    1000.000      -4.613
    67   5526.27    -897.13156    -894.98867    1000.000      -5.464
    68   6920.89    -897.66841    -894.98473    1000.000      -5.918
    69   9313.66    -898.59260    -894.98109    1000.000      -5.850
    70  12741.47    -899.95120    -895.01050    1000.000      -4.680
    71  15299.51    -901.19101    -895.25839    1000.000      -0.438
    72   8945.90    -898.68928    -895.22037    1000.000      12.214
    73  11675.98    -900.40511    -895.87758    1000.000       7.142
    74  17462.64    -902.46980    -895.69841    1000.000       0.994
    75  13640.03    -900.78376    -895.49463    1000.000       4.618
    76   8973.31    -898.79999    -895.32046    1000.000       4.383
    77   7273.02    -898.29831    -895.47809    1000.000      -0.863
    78   5548.65    -897.59587    -895.44430    1000.000      -4.123
    79   3539.35    -896.78484    -895.41240    1000.000      -5.378
    80   2132.27    -896.22883    -895.40201    1000.000      -6.020
    81   1504.40    -895.98942    -895.40606    1000.000      -6.434
    82   1602.46    -896.03596    -895.41459    1000.000      -6.605
    83   2396.58    -896.34582    -895.41651    1000.000      -6.503
    84   3898.76    -896.92883    -895.41703    1000.000      -6.043
    85   6067.60    -897.77640    -895.42360    1000.000      -4.862
    86   8617.94    -898.78412    -895.44238    1000.000      -2.835
    87  11176.97    -899.76527    -895.43123    1000.000      -0.080
    88  13966.20    -900.84663    -895.43103    1000.000       1.709
    89  16715.71    -901.96799    -895.48622    1000.000       2.255
    90  18084.61    -902.55573    -895.54315    1000.000       4.193
    91  14543.34    -901.50266    -895.86327    1000.000      10.564
    92   7091.30    -897.17909    -894.42934    1000.000      19.676
    93  12789.49    -900.29902    -895.33970    1000.000       5.261
    94  11985.25    -899.65091    -895.00344    1000.000       4.167
    95  10085.60    -898.88238    -894.97154    1000.000       3.606
    96   9382.30    -898.63678    -894.99865    1000.000       3.594
    97   8926.57    -898.51843    -895.05701    1000.000       5.086
    98   7518.76    -897.92038    -895.00487    1000.000       7.794
    99   7621.04    -897.93693    -894.98176    1000.000       6.437
   100   9104.21    -898.63409    -895.10380    1000.000       1.460
   101   8479.42    -898.32300    -895.03497    1000.000      -1.234
   102   6788.34    -897.63614    -895.00386    1000.000      -2.994
   103   5221.00    -897.02283    -894.99831    1000.000      -4.328
   104   4055.03    -896.56990    -894.99750    1000.000      -5.150
   105   3269.69    -896.26334    -894.99547    1000.000      -5.633
   106   2804.78    -896.07952    -894.99193    1000.000      -5.822
   107   2616.36    -896.00171    -894.98717    1000.000      -5.821
   108   2681.51    -896.02218    -894.98239    1000.000      -5.610
   109   3000.44    -896.14060    -894.97713    1000.000      -5.193
   110   3595.61    -896.36678    -894.97253    1000.000      -4.518
   111   4484.89    -896.71180    -894.97272    1000.000      -3.437
   112   5452.18    -897.11245    -894.99829    1000.000      -1.472
